20
Device Source:1001	USB2+H14197
Integration Begin:1002	350,00
Integration End:1003	800,00
Method:1004	Uses the classic Rectangular method for integration.
Moles of Photons:1013	1,7589E-12
PAR uMoles/m²/sec:1015	9,7114E2
PAR uMoles:1014	1,3924E-6
Photons/cm²/sec:1011	7,3875E16
Total Photons:1012	1,0592E12
dBm:1009	-1,5364E1
eV:1010	2,0708E12
uJoule/cm²:1007	2,6402E2
uJoule:1005	3,3177E-1
uWatt/cm²:1008	2,3140E4
uWatt:1006	2,9077E1

Data from actinica_AbsoluteIrradiance_10-09-15-540.txt Node
Date: Wed Jun 05 10:09:15 UYT 2019
User: fenotipado
Spectrometer: USB2+H14197
Trigger mode: 0
Integration Time (sec): 1,141000E-2
Scans to average: 1
Electric dark correction enabled: true
Nonlinearity correction enabled: false
Boxcar width: 0
XAxis mode: Wavelengths
Number of Pixels in Spectrum: 2048
>>>>>Begin Spectral Data<<<<<
189,495	0
189,878	0
190,26	0
190,643	0
191,025	0
191,407	0
191,79	-0
192,172	-0
192,554	0
192,936	0
193,319	-0
193,701	0
194,083	0
194,465	-0
194,847	-0
195,229	0
195,611	0
195,993	0
196,375	0
196,757	-0
197,139	-0
197,521	-0
197,903	0
198,285	-0
198,666	-0
199,048	-0
199,43	-0
199,812	-0
200,193	-0
200,575	0
200,957	0
201,338	-0
201,72	0
202,101	0
202,483	0
202,864	0
203,245	0
203,627	-0
204,008	-0
204,39	-0
204,771	-0
205,152	0
205,533	0
205,915	0
206,296	-0
206,677	-0
207,058	0
207,439	0
207,82	0
208,201	-0
208,582	0
208,963	0
209,344	-0
209,725	0
210,106	0
210,487	0
210,867	-0
211,248	-0
211,629	0
212,01	0
212,39	0
212,771	-0
213,152	0
213,532	-0
213,913	-0
214,293	-0
214,674	0
215,054	0
215,435	0
215,815	0
216,195	0
216,576	-0
216,956	-0
217,336	-0
217,717	0
218,097	-0
218,477	0
218,857	-0
219,237	0
219,617	0
219,997	0
220,377	-0
220,757	0
221,137	-0
221,517	0
221,897	-0
222,277	-0
222,657	0
223,037	-0
223,416	-0
223,796	0
224,176	0
224,556	0
224,935	0
225,315	0
225,694	0
226,074	-0
226,454	-0
226,833	-0
227,212	0
227,592	-0
227,971	0
228,351	-0
228,73	-0
229,109	0
229,489	0
229,868	-0
230,247	0
230,626	-0
231,005	0
231,384	-0
231,764	0
232,143	0
232,522	0
232,901	0
233,28	0
233,659	0
234,037	0
234,416	0
234,795	-0
235,174	-0
235,553	0
235,931	-0
236,31	0
236,689	-0
237,067	-0
237,446	0
237,825	0
238,203	0
238,582	0
238,96	0
239,339	0
239,717	-0
240,095	0
240,474	0
240,852	-0
241,23	-0
241,609	-0
241,987	-0
242,365	-0
242,743	0
243,121	0
243,499	0
243,877	-0
244,256	0
244,634	-0
245,011	0
245,389	-0
245,767	-0
246,145	0
246,523	0
246,901	0
247,279	0
247,656	0
248,034	0
248,412	0
248,789	-0
249,167	0
249,545	0
249,922	-0
250,3	-0
250,677	0
251,055	-0
251,432	0
251,809	0
252,187	0
252,564	0
252,941	0
253,319	0
253,696	0
254,073	-0
254,45	-0
254,827	-0
255,204	-0
255,582	0
255,959	0
256,336	0
256,713	0
257,089	0
257,466	0
257,843	-0
258,22	0
258,597	-0
258,974	-0
259,35	0
259,727	0
260,104	0
260,48	0
260,857	0
261,234	0
261,61	0
261,987	-0
262,363	0
262,74	-0
263,116	0
263,492	-0
263,869	-0
264,245	0
264,621	-0
264,998	0
265,374	-0
265,75	0
266,126	-0
266,502	0
266,878	0
267,254	0
267,631	-0
268,007	-0
268,382	-0
268,758	-0
269,134	0
269,51	0
269,886	0
270,262	-0
270,638	0
271,013	0
271,389	0
271,765	-0
272,14	0
272,516	0
272,891	0
273,267	0
273,642	0
274,018	0
274,393	0
274,769	0
275,144	-0
275,519	-0
275,895	0
276,27	0
276,645	0
277,02	0
277,396	0
277,771	0
278,146	-0
278,521	-0
278,896	0
279,271	0
279,646	0
280,021	-0
280,396	0
280,771	0
281,145	-0
281,52	0
281,895	-0
282,27	-0
282,644	0
283,019	-0
283,394	0
283,768	0
284,143	0
284,517	0
284,892	0
285,266	-0
285,641	0
286,015	0
286,39	0
286,764	0
287,138	0
287,513	0
287,887	0
288,261	-0
288,635	0
289,009	-0
289,383	0
289,757	0
290,132	0
290,506	-0
290,879	-0
291,253	0
291,627	-0
292,001	0
292,375	0
292,749	0
293,123	0
293,496	0
293,87	0
294,244	-0
294,617	0
294,991	0
295,364	0
295,738	0
296,111	0
296,485	-0
296,858	0
297,232	0
297,605	0
297,978	0
298,352	0
298,725	0
299,098	0
299,471	0
299,845	0
300,218	0
300,591	0
300,964	-0
301,337	0
301,71	0
302,083	0
302,456	0
302,829	0
303,202	0
303,574	0
303,947	0
304,32	0
304,693	-0
305,065	-0
305,438	0
305,811	0
306,183	0
306,556	0
306,928	0
307,301	0
307,673	0
308,045	0
308,418	0
308,79	0
309,163	0
309,535	0
309,907	0
310,279	0
310,651	0
311,024	-0
311,396	0
311,768	0
312,14	0
312,512	0
312,884	0
313,256	0
313,628	-0
313,999	0
314,371	0
314,743	0
315,115	-0
315,487	0
315,858	-0
316,23	0
316,602	0
316,973	-0
317,345	0
317,716	0
318,088	-0
318,459	0
318,831	-0
319,202	0
319,573	0
319,945	0
320,316	-0
320,687	0
321,058	0
321,429	0
321,801	0
322,172	-0
322,543	0
322,914	0
323,285	-0
323,656	-0
324,027	-0
324,398	-0
324,768	-0
325,139	0
325,51	0
325,881	0
326,252	0
326,622	0
326,993	0
327,364	-0
327,734	-0
328,105	0
328,475	0
328,846	0
329,216	-0
329,587	0
329,957	0
330,327	-0
330,698	0
331,068	-0
331,438	0
331,808	0
332,178	0
332,549	0
332,919	0
333,289	0
333,659	-0
334,029	0
334,399	0
334,769	0
335,139	-0
335,508	0
335,878	0
336,248	-0
336,618	-0
336,987	0
337,357	0
337,727	0
338,096	-0
338,466	0
338,835	0
339,205	0
339,574	0
339,944	0
340,313	0
340,683	0
341,052	0
341,421	0
341,79	0
342,16	-0
342,529	0
342,898	0
343,267	0
343,636	0
344,005	0
344,374	-0
344,743	0
345,112	0
345,481	0
345,85	-0
346,219	0
346,588	0
346,956	0
347,325	-0
347,694	0
348,062	0
348,431	0
348,8	0
349,168	0
349,537	0
349,905	-0
350,274	1,5
350,642	2,44
351,01	1,13
351,379	1,62
351,747	1,42
352,115	0,64
352,483	2,95
352,852	0,3
353,22	1,64
353,588	1,12
353,956	0,7
354,324	0,21
354,692	0,22
355,06	0,19
355,428	0,93
355,796	1,35
356,164	0,98
356,532	-1,31
356,899	0,36
357,267	0,54
357,635	1,66
358,003	-0,69
358,37	0,42
358,738	-0,46
359,105	0,41
359,473	1,33
359,84	1,11
360,208	0,41
360,575	1,73
360,943	0,75
361,31	0,23
361,678	1,48
362,045	0,62
362,412	-0,31
362,779	1,22
363,146	0,21
363,514	0,53
363,881	1,1
364,248	0,27
364,615	0,28
364,982	0,11
365,349	1,15
365,716	1,08
366,083	0,69
366,45	0,99
366,816	0,56
367,183	0,1
367,55	0,55
367,917	0,25
368,283	0,23
368,65	0,67
369,017	0,41
369,383	0,77
369,75	0,4
370,116	0,73
370,483	0,19
370,849	0,48
371,216	-0,01
371,582	0,57
371,948	1,65
372,314	-0,24
372,681	0,9
373,047	-0,09
373,413	-0,21
373,779	0,67
374,145	-0,3
374,511	-0,29
374,877	0,4
375,243	-0,05
375,609	0,18
375,975	0,59
376,341	0,07
376,707	0,04
377,073	0,81
377,439	0,28
377,804	-0,17
378,17	0,26
378,536	0,26
378,901	0,65
379,267	0,41
379,633	0,29
379,998	0,05
380,364	0,57
380,729	0,14
381,094	0,32
381,46	-0,4
381,825	0,04
382,19	0,61
382,556	0,74
382,921	0,05
383,286	1,05
383,651	0,99
384,016	0,38
384,381	0,78
384,747	0,57
385,112	0,17
385,477	0,52
385,841	-0,04
386,206	-0,13
386,571	0,63
386,936	0,15
387,301	0,42
387,666	-0,34
388,03	0,36
388,395	-0,04
388,76	0,45
389,124	0,44
389,489	1,03
389,853	0,46
390,218	0,24
390,582	0,17
390,947	-0,18
391,311	-0,02
391,675	1,09
392,04	0,51
392,404	0,67
392,768	0,56
393,132	0,38
393,497	0,13
393,861	0,98
394,225	0,8
394,589	1
394,953	0,64
395,317	0,72
395,681	1,15
396,045	0,5
396,409	1,46
396,772	0,8
397,136	1,3
397,5	1,58
397,864	1,16
398,227	1,67
398,591	1,86
398,955	1,7
399,318	1,26
399,682	1,67
400,045	1,64
400,409	1,96
400,772	1,97
401,135	2,19
401,499	1,82
401,862	2,42
402,225	2,24
402,589	2,41
402,952	2,45
403,315	2,5
403,678	2,21
404,041	2,29
404,404	2,41
404,767	3,09
405,13	2,66
405,493	2,52
405,856	2,77
406,219	2,61
406,582	2,27
406,944	3,26
407,307	3,12
407,67	2,82
408,033	3,58
408,395	2,82
408,758	2,71
409,12	3,1
409,483	3,44
409,845	3,6
410,208	3,04
410,57	3,48
410,933	4,18
411,295	3,7
411,657	3,69
412,019	4,21
412,382	4,11
412,744	4,27
413,106	4,19
413,468	4,11
413,83	3,93
414,192	4,53
414,554	4,46
414,916	3,94
415,278	4,17
415,64	4,73
416,002	5,24
416,364	4,75
416,725	4,9
417,087	4,72
417,449	4,62
417,81	4,43
418,172	4,48
418,534	4,84
418,895	4,64
419,257	4,74
419,618	5,29
419,98	4,84
420,341	4,57
420,702	4,44
421,064	5,16
421,425	4,53
421,786	5,3
422,147	5,15
422,509	5,32
422,87	5,43
423,231	5,15
423,592	5,28
423,953	5,36
424,314	5,34
424,675	5,98
425,036	6,25
425,396	5,69
425,757	5,4
426,118	6,21
426,479	6,15
426,839	5,95
427,2	6,11
427,561	7,11
427,921	6,36
428,282	6,53
428,642	6,09
429,003	6,63
429,363	6,73
429,724	6,68
430,084	6,35
430,444	7,02
430,805	6,7
431,165	6,33
431,525	6,8
431,885	6,49
432,245	6,35
432,606	6,92
432,966	7,08
433,326	7,45
433,686	6,79
434,046	7,1
434,405	7,76
434,765	7,47
435,125	6,97
435,485	7,73
435,845	7,33
436,204	8,11
436,564	7,24
436,924	7,64
437,283	7,72
437,643	7,69
438,002	7,74
438,362	7,62
438,721	8,78
439,081	7,97
439,44	8,95
439,799	8,72
440,159	8,69
440,518	7,98
440,877	9,46
441,236	8,31
441,595	8,32
441,954	8,45
442,314	9,27
442,673	9,09
443,032	9,15
443,39	8,73
443,749	8,91
444,108	8,74
444,467	8,93
444,826	9,14
445,185	9,39
445,543	9,34
445,902	8,22
446,261	9,02
446,619	9,83
446,978	9,77
447,336	9,16
447,695	9,75
448,053	9,3
448,412	9,55
448,77	9,53
449,128	10,18
449,486	9,87
449,845	10,21
450,203	10,28
450,561	10,45
450,919	10,71
451,277	10,85
451,635	10,4
451,993	11,56
452,351	10,78
452,709	11,3
453,067	11,16
453,425	11,35
453,783	11,58
454,141	11,35
454,498	12,07
454,856	11,61
455,214	12,31
455,571	12,59
455,929	11,06
456,286	11,87
456,644	12,33
457,001	12,97
457,359	12,32
457,716	12,54
458,073	12,7
458,431	12,61
458,788	12,55
459,145	12,74
459,502	13,3
459,86	12,72
460,217	13,14
460,574	12,86
460,931	13,76
461,288	13,38
461,645	13,63
462,002	13,97
462,358	14,06
462,715	13,19
463,072	14,38
463,429	13,5
463,786	14,18
464,142	13,53
464,499	13,45
464,855	13,77
465,212	13,66
465,569	14,43
465,925	13,83
466,281	13,81
466,638	14,32
466,994	14,34
467,35	14,28
467,707	13,99
468,063	14,86
468,419	13,51
468,775	13,81
469,131	14,37
469,488	14,91
469,844	14,91
470,2	15,29
470,556	14,36
470,911	15,55
471,267	15,64
471,623	15,27
471,979	15,16
472,335	15,4
472,69	16,1
473,046	16,96
473,402	16,3
473,757	16,35
474,113	17,52
474,469	17,48
474,824	17,15
475,179	17,52
475,535	17,39
475,89	17,73
476,246	17,78
476,601	18,27
476,956	17,96
477,311	18,64
477,666	18,41
478,022	18,16
478,377	18,21
478,732	18,68
479,087	18,99
479,442	18,41
479,797	19,34
480,151	18,87
480,506	19,03
480,861	19,22
481,216	19,69
481,571	19,44
481,925	19,4
482,28	19,04
482,635	20,54
482,989	19,85
483,344	20,18
483,698	19,72
484,053	20,19
484,407	20,21
484,761	20,31
485,116	20,45
485,47	20,21
485,824	20,39
486,178	20,44
486,533	20,28
486,887	21,09
487,241	20,28
487,595	21,33
487,949	21,24
488,303	21,22
488,657	21,31
489,011	21,23
489,364	21,9
489,718	22,22
490,072	21,82
490,426	22,05
490,779	22,25
491,133	23,6
491,487	22,38
491,84	23,24
492,194	22,67
492,547	23,08
492,901	24,37
493,254	23,04
493,607	23,64
493,961	23,58
494,314	23,91
494,667	24,05
495,02	24,83
495,374	24,36
495,727	24,39
496,08	24,7
496,433	25,23
496,786	25,22
497,139	25,01
497,492	25,31
497,845	25,58
498,197	25,55
498,55	25,68
498,903	25,33
499,256	26,24
499,608	25,65
499,961	26,13
500,313	26,8
500,666	26,62
501,019	26,62
501,371	26,71
501,723	27,55
502,076	27,21
502,428	27,11
502,78	27,74
503,133	27,72
503,485	27,9
503,837	27,55
504,189	27,69
504,541	27,81
504,893	27,75
505,245	28,22
505,597	27,76
505,949	28,36
506,301	28,24
506,653	28,54
507,005	28,36
507,357	28,82
507,708	28,93
508,06	27,91
508,412	29,43
508,763	28,72
509,115	29,3
509,466	29,12
509,818	29,39
510,169	29,47
510,521	28,78
510,872	29,35
511,223	30,16
511,575	29,81
511,926	29,58
512,277	30,41
512,628	30,26
512,979	30,77
513,33	30,24
513,681	31,01
514,032	31,11
514,383	31,55
514,734	31,99
515,085	31,88
515,436	31,65
515,787	32,1
516,138	32,52
516,488	32,62
516,839	33,04
517,19	33,35
517,54	34,2
517,891	34,17
518,241	34,74
518,592	34,54
518,942	34,81
519,292	34,2
519,643	35,02
519,993	35
520,343	35,01
520,693	36,12
521,044	35,24
521,394	36,24
521,744	35,7
522,094	36,47
522,444	35,96
522,794	36,12
523,144	35,7
523,494	35,96
523,843	36,59
524,193	36,81
524,543	36,4
524,893	37,38
525,242	36,8
525,592	36,9
525,942	36,77
526,291	36,84
526,641	36,85
526,99	37,14
527,34	36,8
527,689	36,65
528,038	36,33
528,388	37,18
528,737	37,64
529,086	37,27
529,435	37,57
529,784	37,61
530,133	37,65
530,482	38,27
530,831	37,93
531,18	37,87
531,529	39,29
531,878	39,04
532,227	39,49
532,576	38,94
532,925	40,7
533,273	40,47
533,622	40,33
533,971	39,85
534,319	41,27
534,668	42,13
535,016	41,8
535,365	41,88
535,713	42,81
536,061	43,02
536,41	43,94
536,758	44,36
537,106	44,11
537,454	44,93
537,803	45,36
538,151	44,87
538,499	45,39
538,847	44,58
539,195	46,1
539,543	45,61
539,891	45,6
540,239	46,03
540,586	47,12
540,934	47,01
541,282	46,92
541,63	47,45
541,977	47,14
542,325	47,95
542,672	47,63
543,02	47,96
543,367	47,94
543,715	48,39
544,062	48,19
544,41	48,08
544,757	49,47
545,104	49,32
545,452	48,5
545,799	49,39
546,146	48,82
546,493	49,23
546,84	49,98
547,187	49,98
547,534	50,6
547,881	50,64
548,228	50,9
548,575	51,74
548,922	50,99
549,268	52,14
549,615	51,36
549,962	52,03
550,308	52,51
550,655	52,17
551,002	53,02
551,348	52,57
551,695	52,6
552,041	53,45
552,387	54,21
552,734	53,86
553,08	54,19
553,426	53,8
553,772	54,36
554,119	54,06
554,465	54,89
554,811	54,53
555,157	55,16
555,503	55,19
555,849	55,57
556,195	55,18
556,541	56,13
556,886	56,87
557,232	55,94
557,578	55,91
557,924	56,12
558,269	57,04
558,615	56,85
558,961	57,79
559,306	58,25
559,652	57,63
559,997	58,31
560,342	58,55
560,688	59,81
561,033	59,74
561,378	59,71
561,724	60,17
562,069	59,99
562,414	60,64
562,759	60,76
563,104	61,04
563,449	61,78
563,794	61,4
564,139	60,81
564,484	61,92
564,829	61,65
565,174	62,3
565,518	62,8
565,863	63,34
566,208	63,19
566,552	62,63
566,897	62,85
567,242	63,31
567,586	64,12
567,931	64,03
568,275	63,54
568,619	63,2
568,964	64,81
569,308	64,41
569,652	65,17
569,996	64,86
570,341	65,59
570,685	65,49
571,029	66,71
571,373	66,36
571,717	66,49
572,061	66,52
572,405	66,4
572,748	67,2
573,092	66,53
573,436	67,57
573,78	67,12
574,123	67,59
574,467	67,9
574,811	68,45
575,154	68,89
575,498	70,11
575,841	68,89
576,185	69,58
576,528	68,75
576,871	70,13
577,215	70,55
577,558	70,09
577,901	71,29
578,244	70,71
578,587	70,45
578,93	70,73
579,274	70,42
579,616	70,17
579,959	71,41
580,302	71,05
580,645	71,11
580,988	71,17
581,331	72,72
581,674	72,26
582,016	73,03
582,359	71,64
582,701	72,8
583,044	71,96
583,387	72,49
583,729	72,22
584,071	73,01
584,414	73,35
584,756	74,21
585,098	73,29
585,441	73,68
585,783	74,19
586,125	73,38
586,467	74,39
586,809	74,21
587,151	74,63
587,493	75,85
587,835	74,98
588,177	74,98
588,519	76,7
588,861	76,55
589,202	76,42
589,544	77,8
589,886	77,87
590,228	77,57
590,569	78,91
590,911	78,61
591,252	79,07
591,594	78,54
591,935	79,37
592,276	79,85
592,618	81,4
592,959	80,35
593,3	80,58
593,641	81,3
593,983	81,2
594,324	82,16
594,665	82,66
595,006	83,7
595,347	83,81
595,688	84,16
596,029	83,99
596,369	85,47
596,71	85,03
597,051	84,79
597,392	86,43
597,732	87,53
598,073	87,86
598,414	86,75
598,754	87,45
599,095	87,92
599,435	88,95
599,775	87,63
600,116	89,03
600,456	88,87
600,796	91,04
601,137	90,63
601,477	90,22
601,817	90,53
602,157	91,38
602,497	92,53
602,837	90,83
603,177	92,44
603,517	91,82
603,857	91,55
604,197	91,48
604,536	91,53
604,876	92,36
605,216	91,78
605,555	92,85
605,895	92,74
606,235	92,79
606,574	93,31
606,914	92,14
607,253	92,81
607,592	94,03
607,932	94,1
608,271	94,42
608,61	94,31
608,949	93,82
609,289	95,36
609,628	95,18
609,967	97,18
610,306	96,41
610,645	96,6
610,984	95,42
611,323	95,99
611,661	96,2
612	95,73
612,339	96,67
612,678	96,81
613,016	98,1
613,355	97,39
613,694	97,16
614,032	98,72
614,371	97,45
614,709	98,32
615,047	97,6
615,386	98,51
615,724	99,96
616,062	99,9
616,401	98,66
616,739	99,74
617,077	99,71
617,415	99,6
617,753	99,2
618,091	101,89
618,429	99,93
618,767	101,61
619,105	100,47
619,443	102,66
619,78	102,55
620,118	101,23
620,456	103,07
620,793	102,36
621,131	101,91
621,468	102,89
621,806	103,72
622,143	102,77
622,481	104,35
622,818	104,94
623,156	104,33
623,493	105,42
623,83	106,03
624,167	105,06
624,504	104,71
624,841	105,99
625,178	105,19
625,515	105,44
625,852	106,65
626,189	107,36
626,526	106,68
626,863	106,94
627,2	107,56
627,537	107,56
627,873	108,32
628,21	107,21
628,546	109,93
628,883	108,04
629,22	109,76
629,556	110,5
629,892	109,88
630,229	109,72
630,565	109,66
630,901	110,58
631,238	111,4
631,574	112,77
631,91	112,77
632,246	111,01
632,582	111,58
632,918	113,05
633,254	113,22
633,59	111,96
633,926	113,64
634,262	112,86
634,597	112,61
634,933	114,84
635,269	114,64
635,604	115,29
635,94	114,84
636,276	114,52
636,611	115,9
636,947	117,59
637,282	114,99
637,617	116,93
637,953	116,71
638,288	115
638,623	117,73
638,958	118,85
639,294	118,42
639,629	119,63
639,964	120,75
640,299	119,19
640,634	119,28
640,969	121,2
641,303	120,79
641,638	120,36
641,973	120,39
642,308	121,1
642,642	120,69
642,977	121,21
643,312	121,07
643,646	122,16
643,981	123,88
644,315	121,42
644,65	123,01
644,984	122,65
645,318	123,58
645,653	123,18
645,987	123,09
646,321	122,89
646,655	124,71
646,989	123,49
647,323	124,92
647,657	124,52
647,991	126,07
648,325	124,33
648,659	124,47
648,993	123,92
649,326	125,51
649,66	126,74
649,994	127,17
650,327	125,66
650,661	126,52
650,995	126,9
651,328	126,42
651,662	127,72
651,995	127,55
652,328	127,73
652,662	127,99
652,995	127,54
653,328	128,96
653,661	127,13
653,994	127,29
654,327	130,33
654,66	127,1
654,993	128,38
655,326	131,17
655,659	129,45
655,992	129,59
656,325	128,97
656,658	132,32
656,99	131,01
657,323	132,54
657,656	131,89
657,988	131,81
658,321	132,41
658,653	132,55
658,986	133,85
659,318	133,61
659,65	133,71
659,983	133,26
660,315	132,41
660,647	134,7
660,979	133,35
661,311	135,03
661,643	134,36
661,975	134,18
662,307	134,94
662,639	134,98
662,971	135,8
663,303	135,49
663,635	134,19
663,966	136,09
664,298	137,09
664,63	137,75
664,961	137,62
665,293	136,64
665,624	138,09
665,956	136,2
666,287	136,97
666,618	137,05
666,95	138,05
667,281	138,8
667,612	138,54
667,943	138,46
668,274	138,75
668,606	138,86
668,937	137,18
669,268	141,33
669,598	139,07
669,929	141,36
670,26	140,14
670,591	140,7
670,922	141,27
671,252	140,54
671,583	141,96
671,914	141,41
672,244	142,25
672,575	142,57
672,905	141,59
673,236	141,31
673,566	140,76
673,896	141,8
674,227	141,4
674,557	143,55
674,887	144,3
675,217	145,07
675,547	143,23
675,877	143,9
676,207	142,88
676,537	144,9
676,867	145,41
677,197	146,15
677,527	147,53
677,857	145,62
678,186	145,81
678,516	145,28
678,846	147,89
679,175	147,44
679,505	147,11
679,834	147,09
680,164	146,85
680,493	148,08
680,822	149
681,152	149,05
681,481	149,94
681,81	147,81
682,139	149,48
682,468	148,64
682,797	150,55
683,126	149,94
683,455	152,2
683,784	151,3
684,113	149,54
684,442	148,54
684,771	148,28
685,099	150,78
685,428	152,4
685,757	150,41
686,085	150,05
686,414	151,29
686,742	152,76
687,071	152,84
687,399	152,02
687,727	150,95
688,056	152,21
688,384	151,21
688,712	150,27
689,04	153,12
689,368	153,03
689,696	151,28
690,024	150,57
690,352	155,79
690,68	151,9
691,008	154,67
691,336	152,62
691,664	151,97
691,991	153,59
692,319	154,14
692,647	152,49
692,974	152,95
693,302	152,81
693,629	152,29
693,957	151,54
694,284	152,55
694,611	151,56
694,939	149,59
695,266	150,65
695,593	153,57
695,92	149,95
696,247	149,75
696,574	151,06
696,901	151,19
697,228	150,21
697,555	149,85
697,882	152,04
698,209	150,23
698,536	150,62
698,862	150,94
699,189	148,94
699,516	148,58
699,842	149,37
700,169	149,2
700,495	151,17
700,822	150,66
701,148	148,55
701,474	146,28
701,801	148,08
702,127	147,58
702,453	149,35
702,779	147,8
703,105	150,97
703,431	150,22
703,757	148,36
704,083	145,88
704,409	147,97
704,735	148,11
705,061	147,23
705,387	149,22
705,712	148,49
706,038	148,8
706,364	145,67
706,689	146,85
707,015	145,69
707,34	145,25
707,666	147,89
707,991	145,13
708,316	143,75
708,642	146,11
708,967	146,98
709,292	144,4
709,617	145,74
709,942	143,68
710,267	143,18
710,592	141,31
710,917	144,21
711,242	142,66
711,567	142,43
711,892	141,8
712,216	140,67
712,541	140,07
712,866	139,23
713,19	138,55
713,515	139,65
713,839	139,68
714,164	137,6
714,488	137,86
714,813	136,15
715,137	134,53
715,461	131,6
715,785	132,64
716,11	133,74
716,434	132,19
716,758	132,18
717,082	132,39
717,406	130,4
717,73	129,43
718,053	130,03
718,377	128,86
718,701	126,61
719,025	126,42
719,348	124,29
719,672	122,87
719,996	122,83
720,319	123,53
720,643	121,12
720,966	118,4
721,289	117,37
721,613	115,84
721,936	116,08
722,259	114,77
722,582	111,64
722,906	110,09
723,229	110,62
723,552	106,99
723,875	106,12
724,198	105,01
724,521	102,23
724,843	100,59
725,166	99,44
725,489	97,08
725,812	95,52
726,134	93,05
726,457	93,57
726,779	87,74
727,102	86,89
727,424	82,82
727,747	81,91
728,069	79,38
728,391	78,2
728,714	74,23
729,036	71,94
729,358	70,24
729,68	66,51
730,002	64,65
730,324	63,33
730,646	58,88
730,968	55,48
731,29	54,12
731,612	50,49
731,934	48,27
732,255	46,28
732,577	44,22
732,899	42,4
733,22	40,14
733,542	38,36
733,863	36,21
734,185	34,24
734,506	33,25
734,827	30,17
735,149	28,58
735,47	27,45
735,791	26,58
736,112	25,36
736,433	24,04
736,754	21,73
737,075	20,87
737,396	19,2
737,717	18,16
738,038	18,43
738,359	17,15
738,679	16,11
739	15,41
739,321	14,2
739,641	13,82
739,962	13,47
740,282	12,47
740,603	12,72
740,923	10,7
741,243	10,41
741,564	10,16
741,884	9,22
742,204	9,18
742,524	8,95
742,844	8,49
743,164	8,34
743,484	6,77
743,804	7,15
744,124	7,41
744,444	6,48
744,764	6,11
745,083	6,56
745,403	5,23
745,723	5,41
746,042	4,97
746,362	4,84
746,681	4,37
747,001	5,01
747,32	4,1
747,64	3,7
747,959	3,71
748,278	3,4
748,597	3,96
748,916	2,49
749,236	2,95
749,555	2,51
749,874	3,22
750,193	2,78
750,511	1,9
750,83	2,52
751,149	2,25
751,468	2,09
751,786	1,97
752,105	1,43
752,424	1,86
752,742	1,29
753,061	1,8
753,379	1,14
753,698	0,58
754,016	1,25
754,334	1,11
754,652	0,83
754,971	1,01
755,289	1,37
755,607	0,62
755,925	0,8
756,243	0,92
756,561	1,36
756,879	1,03
757,197	0,88
757,514	0,81
757,832	0,19
758,15	0,59
758,467	0,51
758,785	0,72
759,103	0,55
759,42	0,92
759,738	0,09
760,055	1,11
760,372	0,14
760,69	0,54
761,007	0,14
761,324	0,19
761,641	0,77
761,958	0,42
762,275	0,16
762,592	0,65
762,909	0,31
763,226	-0,2
763,543	0,83
763,86	-0
764,176	0,1
764,493	0,31
764,81	0,66
765,126	0,15
765,443	0,17
765,759	0,72
766,076	0,21
766,392	-0,15
766,708	-0,18
767,025	0,78
767,341	-0,2
767,657	0,21
767,973	-0,09
768,289	-0,23
768,605	-0,3
768,921	0,12
769,237	0,15
769,553	0,68
769,869	-0,23
770,185	-0,37
770,5	0,42
770,816	-0,44
771,132	-0
771,447	0,1
771,763	-0,26
772,078	0,77
772,394	-0,2
772,709	-0,15
773,024	0,88
773,34	0,21
773,655	0,07
773,97	0,12
774,285	-0,18
774,6	0,09
774,915	0,24
775,23	-0,13
775,545	0,56
775,86	0,48
776,175	0,75
776,49	0,09
776,804	-0,08
777,119	0,54
777,434	-0,3
777,748	-0,4
778,063	0,3
778,377	-0,52
778,691	0,39
779,006	-0,25
779,32	-0,22
779,634	0,21
779,949	0,01
780,263	-0,28
780,577	-0,4
780,891	0,41
781,205	0,07
781,519	0,19
781,833	0,33
782,147	-0,33
782,46	0,28
782,774	-0,21
783,088	0,2
783,401	0,06
783,715	-0,05
784,029	0,08
784,342	-0,03
784,655	0,76
784,969	0,06
785,282	0,56
785,595	0,86
785,909	-0,26
786,222	-0,18
786,535	0,02
786,848	0,1
787,161	-0,47
787,474	-0,03
787,787	-0,14
788,1	0,46
788,413	-0,03
788,725	0,22
789,038	-0,25
789,351	0,36
789,663	0,04
789,976	0,95
790,288	-0,47
790,601	-0,28
790,913	-0,24
791,226	0,34
791,538	-0,26
791,85	-0,71
792,162	0,47
792,475	-0,76
792,787	-0,53
793,099	-1,22
793,411	-0,54
793,723	-0,69
794,034	-0,08
794,346	0,12
794,658	0,81
794,97	0,78
795,282	0,37
795,593	0,72
795,905	-0,26
796,216	0,86
796,528	0,25
796,839	-0,83
797,151	0,02
797,462	-0,03
797,773	-0,03
798,084	-0,3
798,396	-0,96
798,707	-0,3
799,018	0,34
799,329	-0,57
799,64	-0,09
799,951	-0,36
800,261	-0,75
800,572	-0,12
800,883	-0,23
801,194	-0,75
801,504	-0,73
801,815	0,8
802,125	0,62
802,436	-0,04
802,746	-0,8
803,057	-0,29
803,367	-0,35
803,677	-0,7
803,988	-0,09
804,298	1,18
804,608	-0,62
804,918	-0,66
805,228	-0,72
805,538	0,14
805,848	-0,22
806,158	-0,7
806,468	-0,37
806,777	-0,31
807,087	0,27
807,397	0,57
807,706	0,91
808,016	-0,48
808,325	0,15
808,635	0,43
808,944	-0,45
809,254	0,6
809,563	-0,1
809,872	-0,52
810,181	0,02
810,49	-0,65
810,8	0,93
811,109	0,09
811,418	0,39
811,726	0,32
812,035	0,49
812,344	-0,31
812,653	-0,82
812,962	0,77
813,27	0,59
813,579	-0,84
813,887	0,26
814,196	-0,42
814,504	0,83
814,813	-0,81
815,121	-0,6
815,43	-0,26
815,738	-0,33
816,046	-1,19
816,354	1,5
816,662	0,79
816,97	-0,19
817,278	0,62
817,586	-0,49
817,894	0,58
818,202	-0,31
818,51	0,48
818,817	0,75
819,125	0,07
819,433	0,53
819,74	0,45
820,048	1,12
820,355	-1,66
820,663	0,97
820,97	-0,05
821,277	0,82
821,584	-0,32
821,892	0,31
822,199	-0,58
822,506	0,15
822,813	-0,65
823,12	-0,21
823,427	0,73
823,734	1,5
824,041	-0,7
824,347	-0,38
824,654	-0,59
824,961	-2,08
825,267	0,96
825,574	0,5
825,88	-0,01
826,187	-0,57
826,493	0,29
826,8	-0,1
827,106	0,74
827,412	0,96
827,718	0,17
828,024	-0,54
828,331	-0,46
828,637	0,12
828,943	-0,63
829,248	-0,06
829,554	0,26
829,86	1,27
830,166	0,7
830,472	-0,3
830,777	-0,01
831,083	-0,49
831,388	1,2
831,694	-0,25
831,999	-0,59
832,305	-2,21
832,61	-0,89
832,915	1,35
833,221	-0,06
833,526	-0,56
833,831	-1,24
834,136	-1,1
834,441	-1,45
834,746	-0,31
835,051	1,58
835,356	-0,47
835,661	1,15
835,965	-0,12
836,27	-0,8
836,575	1,19
836,879	0,57
837,184	1,2
837,488	2,89
837,793	0,47
838,097	2,38
838,402	-0,29
838,706	0,74
839,01	0,81
839,314	-0,72
839,618	-0,18
839,922	-1,57
840,226	-0,74
840,53	-1,74
840,834	-0,47
841,138	-0,47
841,442	0,5
841,746	-1,06
842,049	1,2
842,353	-0,94
842,657	0,98
842,96	0,45
843,264	-1,34
843,567	0,1
843,87	-0,61
844,174	-0,32
844,477	-0,87
844,78	-0,14
845,083	1,35
845,386	-1,87
845,689	0,17
845,992	-0,33
846,295	0,31
846,598	-0,78
846,901	-2,62
847,204	1,31
847,507	-0,02
847,809	-0,93
848,112	1,29
848,414	0,93
848,717	-1,6
849,019	-2,08
849,322	-1,1
849,624	0,25
849,926	-2,15
850,229	-0,63
850,531	0,12
850,833	-0,71
851,135	-1,34
851,437	0,19
851,739	-2,25
852,041	-3,25
852,343	1,19
852,645	1,64
852,946	1,2
853,248	-0,16
853,55	-0,88
853,851	-0,77
854,153	-1,49
854,454	-0,84
854,756	-0,77
855,057	0,06
855,358	-0,32
855,66	0,59
855,961	1,13
856,262	0,59
856,563	0,06
856,864	0,14
857,165	-0,72
857,466	1,34
857,767	1,09
858,068	2,14
858,369	2,62
858,669	-1,52
858,97	-0,42
859,271	-0,75
859,571	2,14
859,872	-0,6
860,172	2,76
860,473	-0,76
860,773	-0,79
861,073	-2,01
861,374	0,58
861,674	1,53
861,974	0,51
862,274	-0,28
862,574	-1,77
862,874	1,03
863,174	-0,75
863,474	0,16
863,773	-0,84
864,073	-1,74
864,373	2,63
864,673	-0,57
864,972	-0,86
865,272	-0,58
865,571	-1,88
865,871	-2,32
866,17	-4,05
866,469	-2,47
866,768	2,39
867,068	-0,32
867,367	0,77
867,666	0,97
867,965	0,88
868,264	2,58
868,563	-0,12
868,862	-0,34
869,161	4,27
869,459	1,33
869,758	1,02
870,057	-4,16
870,355	3,56
870,654	0,29
870,952	4,02
871,251	-1,43
871,549	-0,56
871,847	0,84
872,146	4,52
872,444	2,2
872,742	-0,14
873,04	0,9
873,338	-5,17
873,636	1,65
873,934	0,32
874,232	2,77
874,53	-3,44
874,828	-0,03
875,125	-1,71
875,423	-3,89
875,721	0,83
876,018	-0,78
876,316	2,92
876,613	3,27
876,911	2,22
877,208	0,47
877,505	3,63
877,803	3,4
878,1	-0,16
878,397	-3,41
878,694	2,46
878,991	-0,29
879,288	2,36
879,585	0,1
879,882	-2,35
880,178	-1,01
880,475	1,49
880,772	5,62
881,068	-4,88
881,365	-1,3
881,662	1,65
881,958	-0,31
882,254	-2,92
882,551	2,15
882,847	0,39
883,143	1,42
883,439	-2,27
883,736	3,4
884,032	0,56
884,328	-2,44
884,624	-3,4
884,92	-2,93
885,215	-0,34
885,511	-2,91
885,807	0,6
886,103	-3,19
886,398	2,41
886,694	0,27
886,989	3,11
887,285	2,14
887,58	0,93
887,876	-5,51
888,171	1,73
888,466	0,12
888,761	-4,77
889,056	-1,68
889,352	3,07
889,647	-1,23
889,941	0,29
890,236	-1,89
890,531	1,61
890,826	-1,06
891,121	-1,06
891,415	-1,06
